# Optical absorption spectrum of Bacteriochlorophyll a in toluene
#
# Data from PhotochemCAD 2.1a has been munged on  2 June 2017 by Scott Prahl to make
# the information available to non-Windows users.  Although I have tried to be as careful
# as possible, I may have introduced some error; the cautious user is advised to compare
# these results with the original sources at www.photochemcad.com:
#
# H. Du, R. A. Fuh, J. Li, A. Corkan, J. S. Lindsey, "PhotochemCAD: A computer-aided design
#     and research tool in photochemistry," Photochem. Photobiol., 68, 141-142, 1998. 
# J. M. Dixon, M. Taniguchi and J. S. Lindsey "PhotochemCAD 2. A refined program with accompanying 
#     spectral databases for photochemical calculations", Photochem. Photobiol., 81, 212-213, 2005.
#
# The spectral absorption measurements were made by D. Holten on 09-15-2004 using a .  
#
#
# These measurements were scaled to make the molar extinction coefficient match
# the value of 92000 cm-1/M at 781.0 nm.  These values were 
# then interpolated to report extinction coefficients at regular 1nm intervals
#
# The reported molar extinction coefficient is from
# Connolly, J. S., E. B. Samuel and A. F. Janzen (1982) Effects of solvent on the fluorescence properties of bacteriochlorophyll a.  Photochem. Photobiol. 36, 565-574.
#
##Wavelength (nm)	Molar Extinction (cm-1/M) 
300	19765
300.2	19872
300.39	19923
300.6	19983
300.8	20029
301	20208
301.2	20252
301.39	20356
301.6	20436
301.8	20559
302	20559
302.2	20588
302.39	20794
302.6	20802
302.8	20874
303	20896
303.2	20869
303.39	20956
303.6	21114
303.8	21022
304	21179
304.2	21233
304.39	21133
304.6	21247
304.8	21295
305	21240
305.2	21254
305.39	21254
305.6	21380
305.8	21540
306	21482
306.2	21436
306.39	21513
306.6	21499
306.8	21494
307	21569
307.2	21395
307.39	21472
307.6	21395
307.8	21463
308	21291
308.2	21315
308.39	21266
308.6	21363
308.8	21310
309	21322
309.2	21303
309.39	21220
309.6	21109
309.8	21182
310	21184
310.2	21131
310.39	21082
310.6	21116
310.8	21034
311	21048
311.2	20993
311.39	21024
311.6	20976
311.8	21005
312	20971
312.2	20925
312.39	20944
312.6	20889
312.8	20913
313	20806
313.2	20935
313.39	20833
313.6	21000
313.8	20983
314	21070
314.2	21094
314.39	21097
314.6	21116
314.8	21162
315	21203
315.2	21170
315.39	21286
315.6	21177
315.8	21203
316	21378
316.2	21562
316.39	21475
316.6	21571
316.8	21627
317	21647
317.2	21845
317.39	21886
317.6	22017
317.8	22124
318	22249
318.2	22380
318.39	22421
318.6	22581
318.8	22649
319	22564
319.2	22743
319.39	22911
319.6	22944
319.8	23145
320	23218
320.2	23305
320.39	23373
320.6	23535
320.8	23773
321	23695
321.2	24119
321.39	24003
321.6	24189
321.8	24339
322	24378
322.2	24598
322.39	24557
322.6	24891
322.8	24981
323	25032
323.2	25259
323.39	25293
323.6	25489
323.8	25564
324	25802
324.2	25884
324.39	26116
324.6	26199
324.8	26429
325	26586
325.2	26613
325.39	26853
325.6	26981
325.8	27257
326	27252
326.2	27451
326.39	27756
326.6	27843
326.8	28061
327	28102
327.2	28320
327.39	28518
327.6	28627
327.8	28867
328	29000
328.2	29204
328.4	29317
328.6	29453
328.8	29552
329	29891
329.2	30037
329.4	30317
329.6	30412
329.8	30618
330	30681
330.2	30836
330.4	31124
330.6	31148
330.8	31436
331	31434
331.2	31703
331.4	31814
331.6	32058
331.8	32262
332	32574
332.2	32654
332.4	32799
332.6	32979
332.8	33187
333	33366
333.2	33468
333.4	33584
333.6	33911
333.8	34068
334	34209
334.2	34414
334.4	34753
334.6	34867
334.8	34991
335	35160
335.2	35373
335.4	35649
335.6	35804
335.8	35947
336	36131
336.2	36383
336.4	36458
336.6	36795
336.8	37015
337	37192
337.2	37439
337.4	37691
337.6	37887
337.8	38136
338	38318
338.2	38594
338.4	38800
338.6	39107
338.8	39347
339	39516
339.2	39669
339.4	39909
339.6	40177
339.8	40451
340	40606
340.2	40870
340.4	41141
340.6	41361
340.8	41611
341	41906
341.2	42073
341.4	42359
341.6	42645
341.8	42795
342	43102
342.2	43260
342.4	43667
342.6	43838
342.8	44039
343	44337
343.2	44558
343.4	44877
343.6	45105
343.8	45274
344	45776
344.2	45935
344.4	46238
344.6	46361
344.8	46684
345	46931
345.2	47199
345.4	47512
345.6	47759
345.8	47991
346	48257
346.2	48579
346.4	48863
346.6	49105
346.8	49371
347	49659
347.2	50003
347.4	50311
347.6	50575
347.8	50938
348	51088
348.2	51478
348.4	51810
348.6	52122
348.8	52386
349	52718
349.2	53023
349.4	53265
349.6	53647
349.8	53967
350	54359
350.2	54735
350.4	55003
350.6	55371
350.8	55606
351	56124
351.2	56509
351.4	56989
351.6	57108
351.8	57635
352	57938
352.2	58207
352.4	58539
352.6	58870
352.8	59289
353	59754
353.2	60098
353.4	60512
353.6	60861
353.8	61202
354	61672
354.2	62081
354.4	62422
354.6	62788
354.8	63185
355	63524
355.2	63926
355.4	64306
355.6	64696
355.8	65074
356	65425
356.2	65766
356.4	66130
356.6	66524
356.8	66851
357	67151
357.2	67466
357.4	67723
357.6	68018
357.8	68350
358	68701
358.2	68950
358.4	69292
358.6	69454
358.8	69636
359	69842
359.2	70011
359.4	70219
359.6	70331
359.8	70539
360	70641
360.2	70718
360.4	70800
360.6	70856
360.8	70890
361	70829
361.2	70931
361.4	70883
361.6	70863
361.8	70728
362	70614
362.2	70628
362.4	70391
362.6	70299
362.8	70038
363	69827
363.2	69624
363.4	69360
363.6	69093
363.8	68812
364	68503
364.2	68222
364.4	67907
364.6	67527
364.8	67173
365	66803
365.2	66435
365.4	66064
365.6	65684
365.8	65263
366	64868
366.2	64442
366.4	63984
366.6	63585
366.8	63076
367	62573
367.2	62113
367.4	61667
367.6	61241
367.8	60725
368	60284
368.2	59783
368.4	59284
368.6	58851
368.8	58410
369	57885
369.2	57447
369.4	57064
369.6	56609
369.8	56100
370	55660
370.2	55221
370.4	54795
370.6	54434
370.8	53962
371	53647
371.2	53289
371.4	52851
371.6	52580
371.8	52180
372	51885
372.2	51546
372.4	51146
372.6	50780
372.8	50500
373	50226
373.2	49877
373.4	49623
373.6	49262
373.8	49100
374	48780
374.2	48521
374.4	48306
374.6	48044
374.8	47839
375	47667
375.2	47458
375.4	47253
375.6	47102
375.8	46938
376	46751
376.2	46536
376.4	46492
376.6	46260
376.8	46115
377	46023
377.2	45923
377.4	45751
377.6	45737
377.8	45541
378	45463
378.2	45361
378.4	45245
378.6	45211
378.8	45139
379	45081
379.2	45066
379.4	44947
379.6	44894
379.8	44819
380	44792
380.2	44698
380.4	44625
380.6	44567
380.8	44572
381	44497
381.2	44463
381.4	44376
381.6	44405
381.8	44407
382	44337
382.2	44272
382.4	44248
382.6	44158
382.8	44127
383	44153
383.2	44037
383.4	43996
383.6	43989
383.8	43918
384	43892
384.2	43812
384.4	43775
384.6	43676
384.8	43618
385	43558
385.2	43560
385.4	43470
385.6	43412
385.8	43388
386	43284
386.2	43267
386.4	43248
386.6	43180
386.8	43136
387	43122
387.2	43127
387.4	43076
387.6	43001
387.8	42989
388	43018
388.2	43030
388.4	42974
388.6	43064
388.8	43141
389	43090
389.2	43110
389.4	43127
389.6	43180
389.8	43146
390	43189
390.2	43260
390.4	43272
390.6	43308
390.8	43427
391	43497
391.2	43572
391.4	43640
391.6	43725
391.8	43734
392	43826
392.2	43911
392.4	43984
392.6	44061
392.8	44211
393	44354
393.2	44383
393.4	44555
393.6	44688
393.8	44729
394	44863
394.2	44923
394.4	44909
394.6	44981
394.8	45037
395	45173
395.2	45153
395.4	45223
395.6	45207
395.8	45257
396	45265
396.2	45257
396.4	45291
396.6	45269
396.8	45190
397	45119
397.2	45003
397.4	44906
397.6	44754
397.8	44606
398	44470
398.2	44298
398.4	44054
398.6	43848
398.8	43562
399	43357
399.2	43013
399.4	42662
399.6	42412
399.8	42051
400	41671
400.2	41323
400.4	40858
400.6	40405
400.8	39957
401	39485
401.2	39001
401.4	38487
401.6	37967
401.8	37424
402	36925
402.2	36356
402.4	35795
402.6	35218
402.8	34671
403	34044
403.2	33417
403.4	32848
403.6	32242
403.8	31611
404	31078
404.2	30436
404.4	29734
404.6	29126
404.8	28477
405	27966
405.2	27317
405.4	26695
405.6	26184
405.8	25528
406	24954
406.2	24405
406.4	23816
406.6	23247
406.8	22772
407	22160
407.2	21659
407.4	21184
407.6	20734
407.8	20252
408	19755
408.2	19332
408.4	18806
408.6	18361
408.8	17913
409	17537
409.2	17099
409.4	16707
409.6	16283
409.8	15915
410	15552
410.2	15254
410.4	14893
410.6	14516
410.8	14240
411	13959
411.2	13668
411.4	13310
411.6	13031
411.8	12792
412	12591
412.2	12310
412.4	12036
412.6	11809
412.8	11571
413	11378
413.2	11186
413.4	11046
413.6	10782
413.8	10661
414	10460
414.2	10298
414.4	10114
414.6	9968
414.8	9830
415	9646
415.2	9523
415.4	9433
415.6	9271
415.8	9135
416	9009
416.2	8888
416.4	8799
416.6	8753
416.8	8598
417	8489
417.2	8402
417.4	8327
417.6	8244
417.8	8133
418	8038
418.2	7975
418.4	7886
418.6	7876
418.8	7699
419	7632
419.2	7629
419.4	7571
419.6	7482
419.8	7353
420	7377
420.2	7302
420.4	7268
420.6	7242
420.8	7174
421	7053
421.2	7007
421.4	6956
421.6	6951
421.8	6913
422	6847
422.2	6845
422.4	6765
422.6	6726
422.8	6687
423	6629
423.2	6554
423.4	6503
423.6	6598
423.8	6518
424	6479
424.2	6416
424.4	6397
424.6	6331
424.8	6353
425	6281
425.2	6281
425.4	6198
425.6	6138
425.8	6155
426	6123
426.2	6063
426.4	6055
426.6	6012
426.8	5961
427	5949
427.2	5951
427.4	5915
427.6	5898
427.8	5857
428	5791
428.2	5837
428.4	5779
428.6	5758
428.8	5695
429	5680
429.2	5680
429.4	5627
429.6	5632
429.8	5583
430	5607
430.2	5552
430.4	5549
430.6	5515
430.8	5508
431	5535
431.2	5532
431.4	5552
431.6	5503
431.8	5489
432	5394
432.2	5423
432.4	5411
432.6	5435
432.8	5353
433	5329
433.2	5346
433.4	5348
433.6	5358
433.8	5293
434	5261
434.2	5244
434.4	5230
434.6	5201
434.8	5213
435	5162
435.2	5172
435.4	5174
435.6	5140
435.8	5111
436	5133
436.2	5101
436.4	5082
436.6	5017
436.8	5060
437	4995
437.2	5017
437.4	5019
437.6	4958
437.8	4990
438	4951
438.2	4925
438.4	4801
438.6	4869
438.8	4833
439	4804
439.2	4733
439.4	4741
439.6	4731
439.8	4733
440	4711
440.2	4690
440.4	4678
440.6	4646
440.8	4675
441	4612
441.2	4600
441.4	4576
441.6	4600
441.8	4566
442	4547
442.2	4486
442.4	4496
442.6	4518
442.8	4419
443	4426
443.2	4414
443.4	4455
443.6	4392
443.8	4278
444	4283
444.2	4285
444.4	4247
444.6	4220
444.8	4201
445	4099
445.2	4184
445.4	4162
445.6	4159
445.8	4116
446	4145
446.2	4072
446.4	4029
446.6	4075
446.8	4034
447	4029
447.2	3995
447.4	3966
447.6	3922
447.8	3917
448	3908
448.2	3915
448.4	3876
448.6	3891
448.8	3799
449	3801
449.2	3818
449.4	3731
449.6	3719
449.8	3724
450	3825
450.2	3760
450.4	3767
450.6	3733
450.8	3711
451	3675
451.2	3697
451.4	3622
451.6	3610
451.8	3644
452	3605
452.2	3544
452.4	3559
452.6	3535
452.8	3540
453	3472
453.2	3445
453.4	3457
453.6	3452
453.8	3469
454	3377
454.2	3343
454.4	3356
454.6	3368
454.8	3331
455	3307
455.2	3295
455.4	3276
455.6	3256
455.8	3244
456	3230
456.2	3222
456.4	3222
456.6	3227
456.8	3184
457	3128
457.2	3210
457.4	3150
457.6	3155
457.8	3101
458	3125
458.2	3096
458.4	3089
458.6	3065
458.8	3048
459	3089
459.2	3055
459.4	3033
459.6	3024
459.8	3007
460	2990
460.2	3019
460.4	3012
460.6	3019
460.8	2917
461	2946
461.2	2898
461.4	2949
461.6	2932
461.8	2893
462	2852
462.2	2862
462.4	2888
462.6	2830
462.8	2886
463	2818
463.2	2828
463.4	2782
463.6	2774
463.8	2828
464	2782
464.2	2753
464.4	2818
464.6	2791
464.8	2733
465	2757
465.2	2736
465.4	2745
465.6	2714
465.8	2711
466	2658
466.2	2678
466.4	2680
466.6	2668
466.8	2651
467	2673
467.2	2627
467.4	2663
467.6	2641
467.8	2615
468	2600
468.2	2610
468.4	2556
468.6	2576
468.8	2617
469	2561
469.2	2571
469.4	2573
469.6	2496
469.8	2523
470	2525
470.2	2515
470.4	2503
470.6	2535
470.8	2469
471	2477
471.2	2464
471.4	2431
471.6	2472
471.8	2460
472	2467
472.2	2431
472.4	2440
472.6	2382
472.8	2421
473	2443
473.2	2394
473.4	2435
473.6	2387
473.8	2353
474	2394
474.2	2394
474.4	2360
474.6	2358
474.8	2322
475	2370
475.2	2372
475.4	2322
475.6	2319
475.8	2263
476	2317
476.2	2314
476.4	2285
476.6	2309
476.8	2280
477	2271
477.2	2273
477.4	2290
477.6	2276
477.8	2261
478	2280
478.2	2276
478.4	2247
478.6	2251
478.8	2227
479	2215
479.2	2208
479.4	2220
479.6	2251
479.8	2208
480	2193
480.2	2244
480.4	2273
480.6	2213
480.8	2203
481	2164
481.2	2205
481.4	2203
481.6	2188
481.8	2198
482	2230
482.2	2191
482.4	2162
482.6	2210
482.8	2193
483	2162
483.2	2167
483.4	2162
483.6	2157
483.8	2152
484	2171
484.2	2193
484.4	2167
484.6	2142
484.8	2196
485	2145
485.2	2116
485.4	2155
485.6	2159
485.8	2176
486	2128
486.2	2118
486.4	2133
486.6	2125
486.8	2157
487	2142
487.2	2171
487.4	2155
487.6	2186
487.8	2125
488	2138
488.2	2169
488.4	2152
488.6	2130
488.8	2123
489	2140
489.2	2128
489.4	2164
489.6	2125
489.8	2121
490	2125
490.2	2171
490.4	2167
490.6	2176
490.8	2171
491	2171
491.2	2145
491.4	2142
491.6	2176
491.8	2111
492	2167
492.2	2171
492.4	2128
492.6	2150
492.8	2159
493	2188
493.2	2123
493.4	2181
493.6	2162
493.8	2169
494	2179
494.2	2167
494.4	2147
494.6	2145
494.8	2157
495	2188
495.2	2130
495.4	2232
495.6	2138
495.8	2162
496	2244
496.2	2237
496.4	2237
496.6	2232
496.8	2242
497	2263
497.2	2251
497.4	2254
497.6	2251
497.8	2237
498	2234
498.2	2290
498.4	2256
498.6	2259
498.8	2266
499	2261
499.2	2237
499.4	2230
499.6	2201
499.8	2203
500	2171
500.2	2184
500.4	2179
500.6	2142
500.8	2159
501	2210
501.2	2181
501.4	2196
501.6	2213
501.8	2167
502	2147
502.2	2191
502.4	2181
502.6	2150
502.8	2089
503	2125
503.2	2101
503.4	2135
503.6	2181
503.8	2125
504	2130
504.2	2123
504.4	2128
504.6	2099
504.8	2135
505	2079
505.2	2111
505.4	2101
505.6	2133
505.8	2145
506	2111
506.2	2109
506.4	2058
506.6	2063
506.8	2113
507	2152
507.2	2174
507.4	2179
507.6	2164
507.8	2181
508	2145
508.2	2150
508.4	2155
508.6	2159
508.8	2179
509	2109
509.2	2203
509.4	2157
509.6	2186
509.8	2169
510	2162
510.2	2130
510.4	2184
510.6	2135
510.8	2227
511	2174
511.2	2138
511.4	2181
511.6	2191
511.8	2181
512	2150
512.2	2215
512.4	2179
512.6	2201
512.79	2213
513	2232
513.2	2179
513.4	2198
513.6	2230
513.79	2244
514	2220
514.2	2288
514.4	2295
514.6	2227
514.79	2278
515	2288
515.2	2276
515.4	2249
515.6	2307
515.79	2293
516	2312
516.2	2314
516.4	2334
516.6	2358
516.79	2331
517	2358
517.2	2348
517.4	2397
517.6	2377
517.79	2428
518	2402
518.2	2411
518.4	2414
518.6	2418
518.79	2460
519	2462
519.2	2469
519.4	2481
519.6	2452
519.79	2556
520	2561
520.2	2527
520.4	2566
520.6	2535
520.79	2605
521	2547
521.2	2651
521.4	2651
521.6	2678
521.79	2702
522	2733
522.2	2721
522.4	2753
522.6	2806
522.79	2760
523	2830
523.2	2808
523.4	2864
523.6	2833
523.79	2866
524	2895
524.2	2915
524.4	2932
524.6	2990
524.79	3014
525	3002
525.2	3036
525.4	3079
525.6	3092
525.79	3123
526	3140
526.2	3150
526.4	3232
526.6	3218
526.79	3254
527	3251
527.2	3310
527.4	3307
527.6	3339
527.79	3392
528	3409
528.2	3431
528.4	3467
528.6	3455
528.79	3506
529	3523
529.2	3552
529.4	3566
529.6	3612
529.79	3690
530	3687
530.2	3673
530.4	3716
530.6	3784
530.79	3762
531	3852
531.2	3854
531.4	3874
531.6	3908
531.79	3929
532	3985
532.2	3941
532.4	4007
532.6	4046
532.79	4050
533	4082
533.2	4128
533.4	4147
533.6	4159
533.79	4169
534	4225
534.2	4196
534.4	4256
534.6	4319
534.79	4310
535	4331
535.2	4358
535.4	4387
535.6	4428
535.79	4467
536	4474
536.2	4506
536.4	4532
536.6	4520
536.79	4561
537	4530
537.2	4576
537.4	4607
537.6	4629
537.79	4612
538	4632
538.2	4682
538.4	4731
538.6	4755
538.79	4757
539	4787
539.2	4845
539.4	4789
539.6	4806
539.79	4862
540	4847
540.2	4883
540.4	4857
540.6	4932
540.79	4908
541	4927
541.2	5000
541.4	4978
541.6	5007
541.79	5019
542	5009
542.2	5077
542.4	5055
542.6	5084
542.79	5077
543	5038
543.2	5126
543.4	5147
543.6	5133
543.79	5174
544	5179
544.2	5186
544.4	5261
544.6	5251
544.79	5230
545	5266
545.2	5290
545.4	5305
545.6	5300
545.79	5341
546	5343
546.2	5363
546.4	5343
546.6	5409
546.79	5397
547	5457
547.2	5448
547.4	5491
547.6	5479
547.79	5508
548	5535
548.2	5583
548.4	5576
548.6	5590
548.79	5615
549	5695
549.2	5678
549.4	5728
549.6	5745
549.79	5753
550	5825
550.2	5852
550.4	5891
550.6	5874
550.79	5949
551	5997
551.2	6038
551.4	6051
551.6	6111
551.79	6150
552	6256
552.2	6239
552.4	6314
552.6	6360
552.79	6402
553	6450
553.2	6469
553.4	6544
553.6	6600
553.79	6716
554	6743
554.2	6818
554.4	6893
554.6	6975
554.79	6983
555	7101
555.2	7147
555.4	7261
555.6	7302
555.79	7433
556	7486
556.2	7583
556.4	7702
556.6	7748
556.79	7854
557	7925
557.2	7997
557.4	8118
557.6	8249
557.79	8317
558	8385
558.2	8525
558.4	8629
558.6	8799
558.79	8905
559	9031
559.2	9150
559.4	9244
559.6	9370
559.79	9506
560	9620
560.2	9729
560.4	9896
560.6	10063
560.79	10184
561	10334
561.2	10465
561.4	10574
561.6	10726
561.79	10893
562	11034
562.2	11164
562.4	11382
562.6	11525
562.79	11620
563	11823
563.2	11932
563.4	12116
563.6	12300
563.79	12455
564	12649
564.2	12809
564.4	13029
564.6	13150
564.79	13341
565	13545
565.2	13707
565.4	13869
565.6	14056
565.79	14242
566	14445
566.2	14608
566.4	14804
566.6	14915
566.79	15165
567	15351
567.2	15530
567.4	15675
567.6	15884
567.79	16053
568	16266
568.2	16429
568.4	16629
568.6	16811
568.79	17017
569	17189
569.2	17375
569.4	17559
569.6	17709
569.79	17874
570	18099
570.2	18332
570.4	18538
570.6	18734
570.79	18903
571	19073
571.2	19242
571.4	19409
571.6	19637
571.79	19753
572	19872
572.2	20143
572.4	20252
572.6	20441
572.79	20557
573	20772
573.2	20908
573.4	21034
573.6	21189
573.79	21300
574	21487
574.2	21620
574.4	21768
574.6	21869
574.79	22058
575	22124
575.2	22315
575.4	22407
575.6	22501
575.79	22584
576	22734
576.2	22797
576.4	22947
576.6	22949
576.79	23099
577	23157
577.2	23271
577.4	23334
577.6	23392
577.79	23448
578	23564
578.2	23596
578.4	23598
578.6	23608
578.79	23693
579	23763
579.2	23758
579.4	23780
579.6	23780
579.79	23809
580	23819
580.2	23843
580.4	23785
580.6	23811
580.79	23780
581	23736
581.2	23751
581.4	23705
581.6	23630
581.79	23584
582	23576
582.2	23506
582.4	23436
582.6	23342
582.79	23310
583	23206
583.2	23141
583.4	23041
583.6	22952
583.79	22814
584	22729
584.2	22622
584.4	22513
584.6	22390
584.79	22235
585	22068
585.2	21988
585.4	21852
585.6	21676
585.79	21555
586	21385
586.2	21203
586.4	21080
586.6	20879
586.79	20651
587	20494
587.2	20310
587.4	20140
587.6	19910
587.79	19690
588	19567
588.2	19339
588.4	19131
588.6	18889
588.79	18729
589	18550
589.2	18254
589.4	18039
589.6	17809
589.79	17625
590	17402
590.2	17198
590.4	16998
590.6	16712
590.79	16506
591	16300
591.2	16041
591.4	15826
591.6	15559
591.79	15412
592	15152
592.2	14908
592.4	14697
592.6	14472
592.79	14300
593	14034
593.2	13806
593.4	13612
593.6	13387
593.79	13131
594	12932
594.2	12733
594.4	12511
594.6	12341
594.79	12131
595	11966
595.2	11741
595.4	11489
595.6	11317
595.79	11152
596	10956
596.2	10782
596.4	10583
596.6	10392
596.79	10191
597	10036
597.2	9857
597.4	9695
597.6	9482
597.79	9346
598	9181
598.2	9034
598.4	8896
598.6	8714
598.79	8566
599	8460
599.2	8259
599.4	8111
599.6	7995
599.79	7825
600	7690
600.2	7544
600.4	7402
600.6	7319
600.79	7179
601	7036
601.2	6934
601.4	6782
601.6	6770
601.79	6605
602	6518
602.2	6341
602.4	6239
602.6	6159
602.79	6070
603	5968
603.2	5866
603.4	5804
603.6	5695
603.79	5627
604	5527
604.2	5392
604.4	5314
604.6	5242
604.79	5186
605	5082
605.2	5009
605.4	4956
605.6	4876
605.79	4850
606	4741
606.2	4728
606.4	4649
606.6	4518
606.79	4511
607	4421
607.2	4353
607.4	4302
607.6	4254
607.79	4234
608	4188
608.2	4067
608.4	4060
608.6	4024
608.79	3971
609	3929
609.2	3854
609.4	3845
609.6	3794
609.79	3748
610	3745
610.2	3678
610.4	3632
610.6	3639
610.79	3576
611	3535
611.2	3508
611.4	3481
611.6	3467
611.79	3423
612	3370
612.2	3348
612.4	3353
612.6	3297
612.79	3247
613	3256
613.2	3273
613.4	3203
613.6	3162
613.79	3171
614	3135
614.2	3104
614.4	3111
614.6	3101
614.79	3077
615	2980
615.2	3055
615.4	3038
615.6	3007
615.79	2971
616	2966
616.2	2956
616.4	2963
616.6	2941
616.79	2910
617	2912
617.2	2881
617.4	2879
617.6	2903
617.79	2842
618	2854
618.2	2857
618.4	2828
618.6	2842
618.79	2801
619	2825
619.2	2823
619.4	2772
619.6	2760
619.79	2791
620	2791
620.2	2757
620.4	2757
620.6	2767
620.79	2786
621	2719
621.2	2682
621.4	2709
621.6	2719
621.79	2673
622	2726
622.2	2694
622.4	2685
622.6	2699
622.79	2694
623	2719
623.2	2690
623.4	2740
623.6	2675
623.79	2680
624	2738
624.2	2697
624.4	2714
624.6	2692
624.79	2675
625	2678
625.2	2699
625.4	2680
625.6	2709
625.79	2687
626	2697
626.2	2743
626.4	2709
626.6	2753
626.79	2731
627	2602
627.2	2721
627.4	2770
627.6	2707
627.79	2699
628	2728
628.2	2745
628.4	2724
628.6	2753
628.79	2782
629	2740
629.2	2728
629.4	2760
629.6	2750
629.79	2789
630	2806
630.2	2767
630.4	2772
630.6	2825
630.79	2813
631	2791
631.2	2840
631.4	2799
631.6	2833
631.79	2845
632	2854
632.2	2833
632.4	2852
632.6	2883
632.79	2857
633	2876
633.2	2908
633.4	2912
633.6	2915
633.79	2915
634	2917
634.2	2898
634.4	2920
634.6	2925
634.79	2941
635	2908
635.2	2934
635.4	2992
635.6	3007
635.79	3031
636	3007
636.2	3014
636.4	3004
636.6	3014
636.79	3014
637	3017
637.2	3029
637.4	3024
637.6	3033
637.79	3087
638	3092
638.2	3072
638.4	3096
638.6	3099
638.79	3094
639	3101
639.2	3089
639.4	3096
639.6	3140
639.79	3155
640	3106
640.2	3155
640.4	3157
640.6	3196
640.79	3159
641	3188
641.2	3184
641.4	3186
641.6	3208
641.79	3242
642	3210
642.2	3232
642.4	3273
642.6	3261
642.79	3237
643	3283
643.2	3276
643.4	3276
643.6	3273
643.79	3264
644	3288
644.2	3341
644.4	3356
644.6	3307
644.79	3312
645	3353
645.2	3346
645.4	3363
645.6	3360
645.79	3389
646	3365
646.2	3363
646.4	3389
646.6	3416
646.79	3443
647	3448
647.2	3411
647.4	3402
647.6	3462
647.79	3472
648	3433
648.2	3406
648.4	3491
648.6	3460
648.79	3462
649	3457
649.2	3450
649.4	3467
649.6	3491
649.79	3549
650	3491
650.2	3464
650.4	3494
650.6	3460
650.79	3525
651	3508
651.2	3547
651.4	3535
651.6	3554
651.79	3518
652	3624
652.2	3523
652.4	3593
652.6	3600
652.79	3561
653	3547
653.2	3624
653.4	3530
653.6	3595
653.79	3622
654	3605
654.2	3612
654.4	3593
654.6	3629
654.79	3569
655	3629
655.2	3634
655.4	3641
655.6	3680
655.8	3663
656	3687
656.2	3651
656.4	3663
656.6	3692
656.8	3661
657	3668
657.2	3726
657.4	3665
657.6	3738
657.8	3702
658	3707
658.2	3678
658.4	3748
658.6	3765
658.8	3779
659	3762
659.2	3772
659.4	3777
659.6	3757
659.8	3779
660	3748
660.2	3791
660.4	3835
660.6	3823
660.8	3806
661	3879
661.2	3733
661.4	3801
661.6	3840
661.8	3820
662	3859
662.2	3828
662.4	3825
662.6	3862
662.8	3811
663	3849
663.2	3840
663.4	3808
663.6	3849
663.8	3837
664	3929
664.2	3886
664.4	3925
664.6	3874
664.8	3905
665	3922
665.2	3958
665.4	3958
665.6	4072
665.8	4048
666	4050
666.2	4104
666.4	4111
666.6	4126
666.8	4157
667	4128
667.2	4198
667.4	4142
667.6	4191
667.8	4191
668	4191
668.2	4225
668.4	4234
668.6	4302
668.8	4368
669	4305
669.2	4324
669.4	4348
669.6	4363
669.8	4365
670	4377
670.2	4440
670.4	4416
670.6	4356
670.8	4462
671	4474
671.2	4440
671.4	4537
671.6	4525
671.8	4515
672	4532
672.2	4552
672.4	4605
672.6	4603
672.8	4692
673	4670
673.2	4709
673.4	4728
673.6	4762
673.8	4755
674	4750
674.2	4801
674.4	4806
674.6	4840
674.8	4881
675	4891
675.2	4942
675.4	4975
675.6	4971
675.8	5026
676	5058
676.2	5058
676.4	5140
676.6	5113
676.8	5203
677	5218
677.2	5213
677.4	5242
677.6	5322
677.8	5297
678	5343
678.2	5343
678.4	5426
678.6	5428
678.8	5486
679	5535
679.2	5496
679.4	5561
679.6	5603
679.8	5627
680	5658
680.2	5663
680.4	5702
680.6	5724
680.8	5794
681	5852
681.2	5847
681.4	5874
681.6	5910
681.8	5939
682	6014
682.2	6029
682.4	6092
682.6	6145
682.8	6133
683	6213
683.2	6215
683.4	6259
683.6	6295
683.8	6360
684	6389
684.2	6402
684.4	6436
684.6	6486
684.8	6530
685	6559
685.2	6600
685.4	6644
685.6	6721
685.8	6731
686	6799
686.2	6808
686.4	6920
686.6	6927
686.8	6959
687	7067
687.2	7024
687.4	7111
687.6	7118
687.8	7159
688	7181
688.2	7268
688.4	7341
688.6	7324
688.8	7416
689	7498
689.2	7540
689.4	7554
689.6	7581
689.8	7629
690	7658
690.2	7755
690.4	7796
690.6	7823
690.8	7876
691	7939
691.2	7942
691.4	8024
691.6	8094
691.8	8123
692	8176
692.2	8140
692.4	8198
692.6	8193
692.8	8302
693	8341
693.2	8353
693.4	8467
693.6	8513
693.8	8499
694	8593
694.2	8658
694.4	8695
694.6	8721
694.8	8779
695	8789
695.2	8893
695.4	8927
695.6	8976
695.8	9029
696	9123
696.2	9213
696.4	9206
696.6	9281
696.8	9300
697	9375
697.2	9465
697.4	9445
697.6	9503
697.8	9588
698	9586
698.2	9637
698.4	9721
698.6	9787
698.8	9804
699	9854
699.2	9898
699.4	9910
699.6	9992
699.8	10029
700	10077
700.2	10092
700.4	10177
700.6	10189
700.8	10271
701	10331
701.2	10341
701.4	10448
701.6	10455
701.8	10445
702	10528
702.2	10557
702.4	10513
702.6	10641
702.8	10658
703	10712
703.2	10733
703.4	10729
703.6	10794
703.8	10842
704	10896
704.2	10942
704.4	10951
704.6	10966
704.8	11060
705	11012
705.2	11087
705.4	11099
705.6	11169
705.8	11152
706	11201
706.2	11244
706.4	11232
706.6	11300
706.8	11368
707	11368
707.2	11424
707.4	11348
707.6	11411
707.8	11397
708	11424
708.2	11428
708.4	11470
708.6	11535
708.8	11542
709	11569
709.2	11610
709.4	11603
709.6	11685
709.8	11629
710	11692
710.2	11748
710.4	11733
710.6	11755
710.8	11792
711	11765
711.2	11818
711.4	11801
711.6	11809
711.8	11850
712	11874
712.2	11881
712.4	11852
712.6	11947
712.8	11927
713	11925
713.2	11944
713.4	11937
713.6	11944
713.8	11937
714	11903
714.2	11961
714.4	11961
714.6	11980
714.8	12014
715	11963
715.2	12034
715.4	11995
715.6	12031
715.8	11995
716	12002
716.2	12010
716.4	11997
716.6	11932
716.8	11993
717	11993
717.2	11966
717.4	11959
717.6	11990
717.8	11988
718	12036
718.2	11995
718.4	11993
718.6	12075
718.8	12060
719	12133
719.2	12111
719.4	12111
719.6	12123
719.8	12118
720	12152
720.2	12072
720.4	12094
720.6	12099
720.8	12089
721	12087
721.2	12157
721.4	12106
721.6	12099
721.8	12138
722	12155
722.2	12121
722.4	12162
722.6	12133
722.8	12150
723	12196
723.2	12179
723.4	12189
723.6	12157
723.8	12206
724	12210
724.2	12203
724.4	12237
724.6	12210
724.8	12259
725	12244
725.2	12264
725.4	12273
725.6	12305
725.8	12370
726	12315
726.2	12346
726.4	12448
726.6	12419
726.8	12351
727	12332
727.2	12344
727.4	12392
727.6	12416
727.8	12443
728	12438
728.2	12506
728.4	12499
728.6	12540
728.8	12588
729	12603
729.2	12673
729.4	12673
729.6	12719
729.8	12857
730	12872
730.2	12867
730.4	12951
730.6	12942
730.8	13024
731	13024
731.2	13075
731.4	13111
731.6	13191
731.8	13213
732	13290
732.2	13315
732.4	13450
732.6	13436
732.8	13462
733	13552
733.2	13595
733.4	13627
733.6	13692
733.8	13726
734	13859
734.2	13905
734.4	13956
734.6	14014
734.8	14111
735	14227
735.2	14298
735.4	14361
735.6	14491
735.8	14581
736	14634
736.2	14642
736.4	14804
736.6	14852
736.8	14947
737	15070
737.2	15150
737.4	15271
737.6	15310
737.8	15465
738	15552
738.2	15613
738.4	15746
738.6	15714
738.8	15889
739	16019
739.2	16119
739.4	16242
739.6	16361
739.8	16465
740	16562
740.2	16678
740.4	16855
740.6	16939
740.8	17087
741	17201
741.2	17334
741.4	17445
741.6	17627
741.8	17712
742	17879
742.2	18058
742.4	18189
742.6	18346
742.8	18475
743	18666
743.2	18898
743.4	19039
743.6	19199
743.8	19404
744	19530
744.2	19717
744.4	19845
744.6	20053
744.8	20257
745	20421
745.2	20608
745.4	20789
745.6	21010
745.8	21220
746	21436
746.2	21571
746.4	21797
746.6	22024
746.8	22242
747	22467
747.2	22719
747.4	22901
747.6	23133
747.8	23388
748	23608
748.2	23840
748.4	24131
748.6	24380
748.8	24642
749	24828
749.2	25087
749.4	25305
749.6	25591
749.8	25833
750	26095
750.2	26434
750.4	26671
750.6	27032
750.8	27317
751	27627
751.2	28003
751.4	28262
751.6	28574
751.8	28889
752	29206
752.2	29480
752.4	29872
752.6	30184
752.8	30509
753	30896
753.2	31211
753.4	31586
753.6	31981
753.8	32366
754	32707
754.2	33085
754.4	33489
754.6	33853
754.8	34209
755	34652
755.2	34996
755.4	35427
755.6	35809
755.8	36230
756	36666
756.2	37124
756.4	37490
756.6	37952
756.8	38458
757	38896
757.2	39371
757.4	39800
757.6	40243
757.8	40727
758	41124
758.2	41691
758.4	42148
758.6	42650
758.8	43122
759	43654
759.2	44102
759.4	44611
759.6	45175
759.8	45664
760	46187
760.2	46662
760.4	47209
760.6	47686
760.8	48267
761	48800
761.2	49352
761.4	49846
761.6	50425
761.8	50977
762	51524
762.2	52059
762.4	52708
762.6	53175
762.8	53752
763	54345
763.2	54936
763.4	55519
763.6	56132
763.8	56677
764	57190
764.2	57812
764.4	58451
764.6	59001
764.8	59577
765	60204
765.2	60783
765.4	61376
765.6	62067
765.8	62614
766	63214
766.2	63764
766.4	64389
766.6	65001
766.8	65633
767	66222
767.2	66820
767.4	67413
767.6	67992
767.8	68575
768	69185
768.2	69812
768.4	70381
768.6	70980
768.8	71604
769	72156
769.2	72721
769.4	73282
769.6	73866
769.8	74425
770	74980
770.2	75604
770.4	76096
770.6	76621
770.8	77232
771	77759
771.2	78292
771.4	78839
771.6	79374
771.8	79888
772	80401
772.2	80895
772.4	81341
772.6	81878
772.8	82362
773	82839
773.2	83290
773.4	83767
773.6	84222
773.8	84663
774	85111
774.2	85547
774.4	85939
774.6	86358
774.8	86745
775	87198
775.2	87484
775.4	87883
775.6	88217
775.8	88566
776	88847
776.2	89183
776.4	89515
776.6	89774
776.8	90038
777	90283
777.2	90506
777.4	90687
777.6	90934
777.8	91140
778	91355
778.2	91510
778.4	91656
778.6	91772
778.8	91874
779	91995
779.2	92147
779.4	92222
779.6	92203
779.8	92249
780	92244
780.2	92263
780.4	92222
780.6	92186
780.8	92094
781	91999
781.2	91961
781.4	91777
781.6	91726
781.8	91532
782	91348
782.2	91162
782.4	90961
782.6	90673
782.8	90416
783	90176
783.2	89903
783.4	89566
783.6	89249
783.8	88871
784	88491
784.2	88101
784.4	87646
784.6	87234
784.8	86815
785	86314
785.2	85840
785.4	85319
785.6	84813
785.8	84244
786	83646
786.2	83060
786.4	82467
786.6	81793
786.8	81268
787	80624
787.2	79905
787.4	79268
787.6	78508
787.8	77801
788	77004
788.2	76309
788.4	75505
788.6	74723
788.8	73902
789	73093
789.2	72355
789.4	71476
789.6	70624
789.8	69764
790	68909
790.2	68079
790.4	67171
790.6	66243
790.8	65318
791	64449
791.2	63536
791.4	62590
791.6	61638
791.8	60749
792	59861
792.2	58875
792.4	58020
792.6	57025
792.8	56083
793	55158
793.2	54204
793.4	53323
793.6	52362
793.8	51398
794	50538
794.2	49565
794.4	48638
794.6	47693
794.8	46756
795	45863
795.2	44914
795.4	44018
795.6	43175
795.8	42231
796	41281
796.2	40482
796.4	39577
796.6	38700
796.8	37889
797	37059
797.2	36233
797.4	35470
797.6	34618
797.8	33819
798	33020
798.2	32293
798.4	31482
798.6	30768
798.8	29952
799	29262
799.2	28521
799.4	27867
799.6	27155
799.8	26509
800	25770
800.2	25182
800.4	24521
800.6	23901
800.8	23266
801	22668
801.2	22073
801.4	21540
801.6	20988
801.8	20387
802	19869
802.2	19308
802.4	18809
802.6	18303
802.8	17852
803	17370
803.2	16850
803.4	16477
803.6	16000
803.8	15588
804	15184
804.2	14765
804.4	14363
804.6	13961
804.8	13566
805	13230
805.2	12930
805.4	12511
805.6	12230
805.8	11896
806	11562
806.2	11264
806.4	10959
806.6	10678
806.8	10363
807	10092
807.2	9835
807.4	9627
807.6	9341
807.8	9104
808	8915
808.2	8651
808.4	8433
808.6	8215
808.8	7980
809	7789
809.2	7583
809.4	7341
809.6	7220
809.8	7031
810	6857
810.2	6682
810.4	6537
810.6	6402
810.8	6264
811	6121
811.2	5983
811.4	5782
811.6	5685
811.8	5544
812	5389
812.2	5339
812.4	5138
812.6	5067
812.8	4980
813	4857
813.2	4738
813.4	4644
813.6	4486
813.8	4416
814	4353
814.2	4276
814.4	4135
814.6	4077
814.8	4031
815	3879
815.2	3893
815.4	3738
815.6	3738
815.8	3624
816	3556
816.2	3532
816.4	3392
816.6	3358
816.8	3331
817	3249
817.2	3188
817.4	3171
817.6	3099
817.8	3053
818	3002
818.2	2934
818.4	2900
818.6	2818
818.8	2801
819	2738
819.2	2757
819.4	2646
819.6	2665
819.8	2598
820	2590
820.2	2525
820.4	2472
820.6	2467
820.8	2438
821	2365
821.2	2331
821.4	2355
821.6	2276
821.8	2273
822	2237
822.2	2125
822.4	2152
822.6	2099
822.8	2101
823	2004
823.2	2065
823.4	1997
823.6	1958
823.8	1939
824	1917
824.2	1895
824.4	1876
824.6	1869
824.8	1828
825	1828
825.2	1755
825.4	1750
825.6	1733
825.8	1743
826	1682
826.2	1702
826.4	1670
826.6	1714
826.8	1561
827	1600
827.2	1641
827.4	1532
827.6	1554
827.8	1544
828	1496
828.2	1506
828.4	1520
828.6	1506
828.8	1464
829	1401
829.2	1435
829.4	1445
829.6	1389
829.8	1447
830	1351
830.2	1394
830.4	1324
830.6	1346
830.8	1331
831	1285
831.2	1259
831.4	1244
831.6	1230
831.8	1263
832	1322
832.2	1293
832.4	1234
832.6	1254
832.8	1179
833	1249
833.2	1193
833.4	1130
833.6	1201
833.8	1058
834	1111
834.2	1191
834.4	1164
834.6	1140
834.8	1067
835	1111
835.2	1075
835.4	1077
835.6	1038
835.8	1067
836	1058
836.2	1026
836.4	1041
836.6	1033
836.8	1016
837	949
837.2	929
837.4	1014
837.6	980
837.8	1055
838	946
838.2	997
838.4	951
838.6	966
838.8	929
839	1000
839.2	956
839.4	970
839.6	958
839.8	852
840	888
840.2	886
840.4	883
840.6	845
840.8	859
841	878
841.2	895
841.4	845
841.6	847
841.8	929
842	910
842.2	765
842.4	866
842.6	835
842.8	774
843	869
843.2	862
843.4	806
843.6	842
843.8	745
844	774
844.2	745
844.4	743
844.6	721
844.8	774
845	687
845.2	774
845.4	755
845.6	702
845.8	748
846	753
846.2	668
846.4	799
846.6	699
846.8	682
847	697
847.2	644
847.4	745
847.6	738
847.8	731
848	692
848.2	733
848.4	740
848.6	682
848.8	687
849	726
849.2	677
849.4	740
849.6	670
849.8	694
850	707
850.2	699
850.4	733
850.6	665
850.8	617
851	636
851.2	658
851.4	687
851.6	648
851.8	673
852	602
852.2	670
852.4	641
852.6	651
852.8	607
853	605
853.2	602
853.4	607
853.6	648
853.8	644
854	578
854.2	544
854.4	547
854.6	520
854.8	573
855	639
855.2	590
855.4	566
855.6	501
855.8	607
856	518
856.2	556
856.4	535
856.6	564
856.8	554
857	595
857.2	498
857.4	535
857.6	566
857.8	622
858	493
858.2	622
858.4	527
858.6	523
858.8	527
859	532
859.2	602
859.4	539
859.6	544
859.8	605
860	615
860.2	539
860.4	573
860.6	530
860.8	547
861	615
861.2	656
861.4	532
861.6	513
861.8	595
862	530
862.2	520
862.4	561
862.6	477
862.8	525
863	571
863.2	569
863.4	583
863.6	617
863.8	491
864	566
864.2	489
864.4	634
864.6	571
864.8	569
865	498
865.2	607
865.4	631
865.6	641
865.8	627
866	537
866.2	641
866.4	619
866.6	593
866.8	583
867	704
867.2	641
867.4	658
867.6	726
867.8	702
868	663
868.2	675
868.4	631
868.6	692
868.8	694
869	709
869.2	762
869.4	653
869.6	697
869.8	726
870	719
870.2	690
870.4	624
870.6	694
870.8	733
871	765
871.2	738
871.4	648
871.6	677
871.8	624
872	699
872.2	682
872.4	670
872.6	707
872.8	736
873	774
873.2	707
873.4	564
873.6	753
873.8	576
874	782
874.2	607
874.4	702
874.6	629
874.8	648
875	675
875.2	687
875.4	665
875.6	670
875.8	702
876	685
876.2	564
876.4	685
876.6	639
876.8	707
877	634
877.2	612
877.4	571
877.6	583
877.8	648
878	648
878.2	670
878.4	573
878.6	576
878.8	489
879	539
879.2	467
879.4	363
879.6	438
879.8	469
880	375
880.2	493
880.4	404
880.6	561
880.8	409
881	484
881.2	411
881.4	508
881.6	300
881.8	326
882	433
882.2	510
882.4	423
882.6	462
882.8	510
883	464
883.2	523
883.4	472
883.6	518
883.8	576
884	561
884.2	445
884.4	416
884.6	351
884.8	334
885	692
885.2	571
885.4	414
885.6	590
885.8	532
886	372
886.2	472
886.4	619
886.6	697
886.8	651
887	627
887.2	426
887.4	556
887.6	498
887.8	585
888	501
888.2	479
888.4	518
888.6	326
888.8	319
889	547
889.2	498
889.4	348
889.6	687
889.8	743
890	416
890.2	363
890.4	290
890.6	433
890.8	489
891	518
891.2	518
891.4	421
891.6	583
891.8	387
892	387
892.2	755
892.4	462
892.6	329
892.8	513
893	554
893.2	774
893.4	472
893.6	857
893.8	772
894	598
894.2	421
894.4	380
894.6	547
894.8	300
895	622
895.2	445
895.4	602
895.6	639
895.8	435
896	590
896.2	719
896.4	828
896.6	622
896.8	627
897	203
897.2	273
897.4	518
897.6	489
897.8	561
898	646
898.2	554
898.4	363
898.6	227
898.8	736
899	445
899.2	743
899.4	883
899.6	714
899.8	765
900	464
